* Measurement data measured by REW V5.20
* Source: /Users/mrs/Desktop/hbb.txt
* Format: Comma/Tab/Space delimited data
* Dated: Nov 28, 2022 8:20:26 PM
* REW Settings:
*  C-weighting compensation: Off
*  Target level: 75.0 dB
* Note: Measurement imported from /Users/mrs/Desktop/hbb.txt Format: Comma/Tab/Space delimited data 12 values loaded, 20 Hz to 20,000 Hz
* Measurement: hbb
* Smoothing: 1/12 octave
* Frequency Step: 1/48 octave
* Start Frequency: 20.000 Hz
*
* Freq(Hz)	SPL(dB)	Phase(degrees)
20.000000	108.049088	0
20.299999	108.058304	0
20.600000	108.091949	0
20.900000	108.132736	0
21.200001	108.175674	0
21.400000	108.204453	0
21.799999	108.261635	0
22.000000	108.289940	0
22.400000	108.345840	0
22.700001	108.387054	0
23.000000	108.427574	0
23.299999	108.467323	0
23.600000	108.506210	0
24.000000	108.556618	0
24.299999	108.593246	0
24.700001	108.640327	0
25.000000	108.674248	0
25.400000	108.717468	0
25.799999	108.758224	0
26.200001	108.796349	0
26.500000	108.823097	0
26.900000	108.856155	0
27.200001	108.878906	0
27.600000	108.906357	0
28.000000	108.930321	0
28.500000	108.954941	0
29.000000	108.972641	0
29.500000	108.981339	0
30.000000	108.978363	0
30.400000	108.967209	0
30.700001	108.954803	0
31.100000	108.934853	0
31.500000	108.912819	0
32.000000	108.884109	0
32.500000	108.854919	0
33.000000	108.825516	0
33.500000	108.795967	0
34.000000	108.766289	0
34.500000	108.736481	0
35.000000	108.706558	0
35.500000	108.676506	0
36.000000	108.646347	0
36.500000	108.616066	0
37.000000	108.585678	0
37.500000	108.555176	0
38.200001	108.512306	0
38.700001	108.481552	0
39.500000	108.432144	0
40.000000	108.401131	0
40.599998	108.363800	0
41.200001	108.326340	0
41.799999	108.288742	0
42.500000	108.244720	0
43.099998	108.206879	0
43.700001	108.168892	0
44.400002	108.124451	0
45.000000	108.086258	0
45.500000	108.054344	0
46.200001	108.009552	0
46.799999	107.971069	0
47.500000	107.926041	0
48.200001	107.880905	0
48.700001	107.848610	0
49.400002	107.803307	0
50.000000	107.764389	0
50.799999	107.712410	0
51.500000	107.666832	0
52.200001	107.621178	0
53.000000	107.568932	0
53.799999	107.516624	0
54.500000	107.470764	0
55.200001	107.424873	0
56.000000	107.372383	0
57.000000	107.306717	0
58.000000	107.241005	0
59.000000	107.175270	0
60.000000	107.109535	0
60.799999	107.056953	0
61.500000	107.010963	0
62.200001	106.964989	0
63.000000	106.912491	0
64.000000	106.846931	0
65.000000	106.781471	0
66.000000	106.716125	0
67.000000	106.650909	0
68.000000	106.585854	0
69.000000	106.520966	0
70.000000	106.456276	0
71.000000	106.391792	0
72.000000	106.327545	0
73.000000	106.263550	0
74.000000	106.199821	0
75.000000	106.136391	0
76.199997	106.060684	0
77.500000	105.979218	0
78.800003	105.898354	0
80.000000	105.824287	0
81.199997	105.750816	0
82.500000	105.671928	0
83.800003	105.593811	0
85.000000	105.522430	0
86.199997	105.451775	0
87.500000	105.376114	0
88.500000	105.318542	0
90.000000	105.233276	0
91.199997	105.166054	0
92.500000	105.094254	0
93.800003	105.023613	0
95.000000	104.959557	0
96.199997	104.896873	0
97.500000	104.831177	0
98.800003	104.768982	0
100.000000	104.715881	0
101.500000	104.655815	0
103.000000	104.601082	0
104.400002	104.552612	0
106.000000	104.498573	0
107.500000	104.448502	0
109.000000	104.398743	0
110.599998	104.345947	0
112.000000	104.299957	0
113.800003	104.241119	0
115.000000	104.202080	0
117.199997	104.130875	0
118.000000	104.105095	0
120.599998	104.021774	0
122.000000	103.977196	0
124.099998	103.910690	0
125.000000	103.882324	0
126.500000	103.835228	0
128.000000	103.788353	0
131.500000	103.679878	0
132.000000	103.664482	0
134.000000	103.603157	0
136.000000	103.542236	0
138.000000	103.481720	0
140.000000	103.421616	0
143.000000	103.332222	0
145.000000	103.273140	0
147.500000	103.199867	0
150.000000	103.127235	0
152.500000	103.055252	0
155.000000	102.983910	0
157.500000	102.913216	0
160.000000	102.843170	0
162.500000	102.773781	0
165.000000	102.705040	0
167.500000	102.636955	0
170.000000	102.569519	0
172.500000	102.502747	0
175.000000	102.436630	0
177.500000	102.371170	0
180.000000	102.306374	0
182.500000	102.242233	0
185.000000	102.178764	0
187.500000	102.115959	0
190.000000	102.053825	0
192.500000	101.992355	0
195.000000	101.931557	0
197.500000	101.871429	0
200.000000	101.811974	0
203.000000	101.741516	0
206.000000	101.672035	0
209.000000	101.603531	0
212.000000	101.536003	0
214.000000	101.491531	0
218.000000	101.403900	0
220.000000	101.360741	0
224.000000	101.275742	0
227.000000	101.213150	0
230.000000	101.151558	0
233.000000	101.090958	0
236.000000	101.031357	0
240.000000	100.953445	0
243.000000	100.896194	0
247.000000	100.821419	0
250.000000	100.766518	0
254.000000	100.694893	0
258.000000	100.625084	0
262.000000	100.557091	0
265.000000	100.507286	0
269.000000	100.442490	0
272.000000	100.395088	0
276.000000	100.333504	0
280.000000	100.273796	0
285.000000	100.201912	0
290.000000	100.133621	0
295.000000	100.070488	0
300.000000	100.015259	0
304.000000	99.977951	0
307.000000	99.953545	0
311.000000	99.924553	0
315.000000	99.898460	0
320.000000	99.868874	0
325.000000	99.842133	0
330.000000	99.818001	0
335.000000	99.796379	0
340.000000	99.777184	0
345.000000	99.760330	0
350.000000	99.745758	0
355.000000	99.733383	0
360.000000	99.723137	0
365.000000	99.714951	0
370.000000	99.708733	0
375.000000	99.704430	0
382.000000	99.701462	0
387.000000	99.701439	0
395.000000	99.704803	0
400.000000	99.708923	0
406.000000	99.715797	0
412.000000	99.724648	0
418.000000	99.735359	0
425.000000	99.750023	0
431.000000	99.764305	0
437.000000	99.780037	0
444.000000	99.800056	0
450.000000	99.818497	0
455.000000	99.834663	0
462.000000	99.858353	0
468.000000	99.879463	0
475.000000	99.904655	0
482.000000	99.929657	0
487.000000	99.946457	0
494.000000	99.966194	0
500.000000	99.977272	0
508.000000	99.982170	0
515.000000	99.979424	0
522.000000	99.973343	0
530.000000	99.964821	0
538.000000	99.955818	0
545.000000	99.947884	0
552.000000	99.939972	0
560.000000	99.931023	0
570.000000	99.919975	0
580.000000	99.909126	0
590.000000	99.898506	0
600.000000	99.888145	0
608.000000	99.880051	0
615.000000	99.873131	0
622.000000	99.866371	0
630.000000	99.858849	0
640.000000	99.849785	0
650.000000	99.841110	0
660.000000	99.832863	0
670.000000	99.825058	0
680.000000	99.817741	0
690.000000	99.810928	0
700.000000	99.804649	0
710.000000	99.798927	0
720.000000	99.793808	0
730.000000	99.789299	0
740.000000	99.785446	0
750.000000	99.782265	0
762.000000	99.779373	0
775.000000	99.777451	0
788.000000	99.776825	0
800.000000	99.777473	0
812.000000	99.779327	0
825.000000	99.782768	0
838.000000	99.787758	0
850.000000	99.793793	0
862.000000	99.801239	0
875.000000	99.810974	0
885.000000	99.819664	0
900.000000	99.834747	0
912.000000	99.848648	0
925.000000	99.865601	0
938.000000	99.884659	0
950.000000	99.904320	0
962.000000	99.926414	0
975.000000	99.954193	0
988.000000	99.988052	0
1000.000000	100.026756	0
1015.000000	100.085831	0
1030.000000	100.153603	0
1044.000000	100.220863	0
1060.000000	100.299690	0
1075.000000	100.374390	0
1090.000000	100.449493	0
1106.000000	100.529945	0
1120.000000	100.600594	0
1138.000000	100.691750	0
1150.000000	100.752708	0
1172.000000	100.864830	0
1180.000000	100.905716	0
1206.000000	101.038979	0
1220.000000	101.110954	0
1241.000000	101.219193	0
1250.000000	101.265671	0
1265.000000	101.343246	0
1280.000000	101.420952	0
1315.000000	101.602692	0
1320.000000	101.628693	0
1340.000000	101.732796	0
1360.000000	101.837021	0
1380.000000	101.941330	0
1400.000000	102.045692	0
1430.000000	102.202271	0
1450.000000	102.306648	0
1475.000000	102.437042	0
1500.000000	102.567307	0
1525.000000	102.697372	0
1550.000000	102.827194	0
1575.000000	102.956703	0
1600.000000	103.085846	0
1625.000000	103.214561	0
1650.000000	103.342796	0
1675.000000	103.470490	0
1700.000000	103.597580	0
1725.000000	103.724014	0
1750.000000	103.849731	0
1775.000000	103.974670	0
1800.000000	104.098778	0
1825.000000	104.221992	0
1850.000000	104.344261	0
1875.000000	104.465515	0
1900.000000	104.585701	0
1925.000000	104.704765	0
1950.000000	104.822647	0
1975.000000	104.939285	0
2000.000000	105.054619	0
2030.000000	105.191223	0
2060.000000	105.325775	0
2090.000000	105.458168	0
2120.000000	105.588303	0
2140.000000	105.673759	0
2180.000000	105.841400	0
2200.000000	105.923531	0
2240.000000	106.084259	0
2270.000000	106.201591	0
2300.000000	106.316032	0
2330.000000	106.427429	0
2360.000000	106.535454	0
2400.000000	106.672943	0
2430.000000	106.768814	0
2470.000000	106.880020	0
2500.000000	106.944824	0
2540.000000	107.003006	0
2580.000000	107.036163	0
2620.000000	107.054665	0
2650.000000	107.062607	0
2690.000000	107.067284	0
2720.000000	107.066879	0
2760.000000	107.061447	0
2800.000000	107.050636	0
2850.000000	107.029808	0
2900.000000	107.001144	0
2950.000000	106.964951	0
3000.000000	106.921532	0
3040.000000	106.881798	0
3070.000000	106.849182	0
3110.000000	106.802071	0
3150.000000	106.750961	0
3200.000000	106.681671	0
3250.000000	106.606674	0
3300.000000	106.526276	0
3350.000000	106.440765	0
3400.000000	106.350456	0
3450.000000	106.255646	0
3500.000000	106.156631	0
3550.000000	106.053726	0
3600.000000	105.947227	0
3650.000000	105.837433	0
3700.000000	105.724655	0
3750.000000	105.609200	0
3820.000000	105.443756	0
3870.000000	105.323486	0
3950.000000	105.129486	0
4000.000000	105.008820	0
4060.000000	104.865646	0
4120.000000	104.723801	0
4180.000000	104.582489	0
4250.000000	104.418190	0
4310.000000	104.278404	0
4370.000000	104.140411	0
4440.000000	103.982811	0
4500.000000	103.851662	0
4550.000000	103.745834	0
4620.000000	103.604027	0
4680.000000	103.489449	0
4750.000000	103.365562	0
4820.000000	103.254906	0
4870.000000	103.186592	0
4940.000000	103.111824	0
5000.000000	103.072617	0
5080.000000	103.057549	0
5150.000000	103.070175	0
5220.000000	103.096031	0
5300.000000	103.133781	0
5380.000000	103.176414	0
5450.000000	103.216454	0
5520.000000	103.258469	0
5600.000000	103.308395	0
5700.000000	103.372917	0
5800.000000	103.438858	0
5900.000000	103.505241	0
6000.000000	103.571083	0
6080.000000	103.622719	0
6150.000000	103.666702	0
6220.000000	103.709229	0
6300.000000	103.755608	0
6400.000000	103.809509	0
6500.000000	103.857956	0
6600.000000	103.899788	0
6700.000000	103.933449	0
6800.000000	103.956184	0
6900.000000	103.963127	0
7000.000000	103.948326	0
7100.000000	103.910240	0
7200.000000	103.855034	0
7300.000000	103.790894	0
7400.000000	103.722977	0
7500.000000	103.653564	0
7620.000000	103.569374	0
7750.000000	103.477470	0
7880.000000	103.384972	0
8000.000000	103.299072	0
8120.000000	103.212692	0
8250.000000	103.118576	0
8380.000000	103.023918	0
8500.000000	102.936050	0
8620.000000	102.847733	0
8750.000000	102.751541	0
8850.000000	102.677200	0
9000.000000	102.565109	0
9120.000000	102.474953	0
9250.000000	102.376801	0
9380.000000	102.278152	0
9500.000000	102.186661	0
9620.000000	102.094765	0
9750.000000	101.994759	0
9880.000000	101.894287	0
10000.000000	101.801140	0
10150.000000	101.684158	0
10300.000000	101.566597	0
10440.000000	101.456352	0
10600.000000	101.329750	0
10750.000000	101.210487	0
10900.000000	101.090683	0
11060.000000	100.962303	0
11200.000000	100.849487	0
11380.000000	100.703789	0
11500.000000	100.606262	0
11720.000000	100.426651	0
11800.000000	100.361084	0
12060.000000	100.147102	0
12200.000000	100.031319	0
12410.000000	99.856941	0
12500.000000	99.781952	0
12650.000000	99.656654	0
12800.000000	99.530952	0
13150.000000	99.236153	0
13200.000000	99.193871	0
13400.000000	99.024368	0
13600.000000	98.854248	0
13800.000000	98.683548	0
14000.000000	98.512283	0
14300.000000	98.254410	0
14500.000000	98.081879	0
14750.000000	97.865562	0
15000.000000	97.648575	0
15250.000000	97.430962	0
15500.000000	97.212784	0
15750.000000	96.994095	0
16000.000000	96.774933	0
16250.000000	96.555367	0
16500.000000	96.335449	0
16750.000000	96.115273	0
17000.000000	95.895042	0
17250.000000	95.675385	0
17500.000000	95.458130	0
17750.000000	95.247620	0
18000.000000	95.050957	0
18250.000000	94.874138	0
18500.000000	94.717468	0
18750.000000	94.577370	0
19000.000000	94.450417	0
19250.000000	94.335350	0
19500.000000	94.234474	0
19750.000000	94.155212	0
20000.000000	94.108978	0