
* Freq(Hz)	SPL(dB)	Phase(degrees)
20.000000	112.936310	0
20.299999	112.929092	0
20.600000	112.919449	0
20.900000	112.907745	0
21.200001	112.894402	0
21.400000	112.884735	0
21.799999	112.864059	0
22.000000	112.853195	0
22.400000	112.830704	0
22.700001	112.813416	0
23.000000	112.795906	0
23.299999	112.778297	0
23.600000	112.760635	0
24.000000	112.737152	0
24.299999	112.719643	0
24.700001	112.696465	0
25.000000	112.679260	0
25.400000	112.656555	0
25.799999	112.634140	0
26.200001	112.612038	0
26.500000	112.595657	0
26.900000	112.574081	0
27.200001	112.558105	0
27.600000	112.537064	0
28.000000	112.516312	0
28.500000	112.490776	0
29.000000	112.465668	0
29.500000	112.440964	0
30.000000	112.416672	0
30.400000	112.397491	0
30.700001	112.383240	0
31.100000	112.364456	0
31.500000	112.345863	0
32.000000	112.322861	0
32.500000	112.300095	0
33.000000	112.277527	0
33.500000	112.255035	0
34.000000	112.232605	0
34.500000	112.210083	0
35.000000	112.187378	0
35.500000	112.164337	0
36.000000	112.140793	0
36.500000	112.116585	0
37.000000	112.091469	0
37.500000	112.065262	0
38.200001	112.026314	0
38.700001	111.996628	0
39.500000	111.945496	0
40.000000	111.911148	0
40.599998	111.867516	0
41.200001	111.821419	0
41.799999	111.773140	0
42.500000	111.714508	0
43.099998	111.662712	0
43.700001	111.609901	0
44.400002	111.547379	0
45.000000	111.493347	0
45.500000	111.448181	0
46.200001	111.384972	0
46.799999	111.330963	0
47.500000	111.268295	0
48.200001	111.206131	0
48.700001	111.162079	0
49.400002	111.100975	0
50.000000	111.049141	0
50.799999	110.980835	0
51.500000	110.921852	0
52.200001	110.863602	0
53.000000	110.797928	0
53.799999	110.733177	0
54.500000	110.677284	0
55.200001	110.622093	0
56.000000	110.559860	0
57.000000	110.483292	0
58.000000	110.408020	0
59.000000	110.334053	0
60.000000	110.261322	0
60.799999	110.203995	0
61.500000	110.154449	0
62.200001	110.105461	0
63.000000	110.050148	0
64.000000	109.981987	0
65.000000	109.914879	0
66.000000	109.848793	0
67.000000	109.783707	0
68.000000	109.719574	0
69.000000	109.656372	0
70.000000	109.594070	0
71.000000	109.532654	0
72.000000	109.472084	0
73.000000	109.412338	0
74.000000	109.353371	0
75.000000	109.295197	0
76.199997	109.226372	0
77.500000	109.152985	0
78.800003	109.080772	0
80.000000	109.015106	0
81.199997	108.950386	0
82.500000	108.881302	0
83.800003	108.813248	0
85.000000	108.751328	0
86.199997	108.690247	0
87.500000	108.625008	0
88.500000	108.575462	0
90.000000	108.502151	0
91.199997	108.444374	0
92.500000	108.382637	0
93.800003	108.321724	0
95.000000	108.266258	0
96.199997	108.211472	0
97.500000	108.152885	0
98.800003	108.095070	0
100.000000	108.042374	0
101.500000	107.977386	0
103.000000	107.913353	0
104.400002	107.854416	0
106.000000	107.788017	0
107.500000	107.726677	0
109.000000	107.666191	0
110.599998	107.602577	0
112.000000	107.547668	0
113.800003	107.478065	0
115.000000	107.432266	0
117.199997	107.349556	0
118.000000	107.319855	0
120.599998	107.224716	0
122.000000	107.174332	0
124.099998	107.099823	0
125.000000	107.068283	0
126.500000	107.016212	0
128.000000	106.964752	0
131.500000	106.846992	0
132.000000	106.830421	0
134.000000	106.764786	0
136.000000	106.700119	0
138.000000	106.636383	0
140.000000	106.573593	0
143.000000	106.481064	0
145.000000	106.420456	0
147.500000	106.345879	0
150.000000	106.272583	0
152.500000	106.200539	0
155.000000	106.129730	0
157.500000	106.060143	0
160.000000	105.991768	0
162.500000	105.924629	0
165.000000	105.858742	0
167.500000	105.794174	0
170.000000	105.731010	0
172.500000	105.669342	0
175.000000	105.609314	0
177.500000	105.551102	0
180.000000	105.494957	0
182.500000	105.441086	0
185.000000	105.389801	0
187.500000	105.341400	0
190.000000	105.296204	0
192.500000	105.254471	0
195.000000	105.216476	0
197.500000	105.182350	0
200.000000	105.152161	0
203.000000	105.121048	0
206.000000	105.095200	0
209.000000	105.074127	0
212.000000	105.057213	0
214.000000	105.047943	0
218.000000	105.033394	0
220.000000	105.027771	0
224.000000	105.019089	0
227.000000	105.014359	0
230.000000	105.010773	0
233.000000	105.008064	0
236.000000	105.006027	0
240.000000	105.004097	0
243.000000	105.003044	0
247.000000	105.002068	0
250.000000	105.001541	0
254.000000	105.001045	0
258.000000	105.000702	0
262.000000	105.000473	0
265.000000	105.000359	0
269.000000	105.000237	0
272.000000	105.000183	0
276.000000	105.000122	0
280.000000	105.000084	0
285.000000	105.000053	0
290.000000	105.000031	0
295.000000	105.000015	0
300.000000	105.000008	0
304.000000	105.000008	0
307.000000	105.000008	0
311.000000	105.000000	0
315.000000	105.000000	0
320.000000	105.000000	0
325.000000	105.000000	0
330.000000	105.000000	0
335.000000	105.000000	0
340.000000	105.000000	0
345.000000	105.000000	0
350.000000	105.000000	0
355.000000	105.000000	0
360.000000	105.000000	0
365.000000	105.000000	0
370.000000	105.000000	0
375.000000	105.000000	0
382.000000	105.000000	0
387.000000	105.000000	0
395.000000	105.000000	0
400.000000	105.000000	0
406.000000	105.000000	0
412.000000	105.000000	0
418.000000	105.000000	0
425.000000	105.000000	0
431.000000	105.000000	0
437.000000	105.000000	0
444.000000	105.000000	0
450.000000	105.000000	0
455.000000	105.000000	0
462.000000	105.000000	0
468.000000	105.000000	0
475.000000	105.000000	0
482.000000	105.000000	0
487.000000	105.000000	0
494.000000	105.000008	0
500.000000	105.000000	0
508.000000	105.000000	0
515.000000	105.000000	0
522.000000	105.000000	0
530.000000	105.000000	0
538.000000	105.000000	0
545.000000	105.000000	0
552.000000	105.000000	0
560.000000	105.000000	0
570.000000	105.000000	0
580.000000	105.000000	0
590.000000	105.000000	0
600.000000	105.000000	0
608.000000	105.000000	0
615.000000	105.000000	0
622.000000	105.000008	0
630.000000	105.000008	0
640.000000	105.000008	0
650.000000	105.000015	0
660.000000	105.000015	0
670.000000	105.000031	0
680.000000	105.000046	0
690.000000	105.000076	0
700.000000	105.000107	0
710.000000	105.000168	0
720.000000	105.000229	0
730.000000	105.000336	0
740.000000	105.000481	0
750.000000	105.000664	0
762.000000	105.000999	0
775.000000	105.001534	0
788.000000	105.002319	0
800.000000	105.003372	0
812.000000	105.004829	0
825.000000	105.007065	0
838.000000	105.010193	0
850.000000	105.014130	0
862.000000	105.019432	0
875.000000	105.027077	0
885.000000	105.034645	0
900.000000	105.049461	0
912.000000	105.064919	0
925.000000	105.086082	0
938.000000	105.112549	0
950.000000	105.142380	0
962.000000	105.177917	0
975.000000	105.223351	0
988.000000	105.276253	0
1000.000000	105.331734	0
1015.000000	105.409714	0
1030.000000	105.496452	0
1044.000000	105.584274	0
1060.000000	105.691284	0
1075.000000	105.796661	0
1090.000000	105.905624	0
1106.000000	106.024567	0
1120.000000	106.130119	0
1138.000000	106.266853	0
1150.000000	106.358208	0
1172.000000	106.525345	0
1180.000000	106.585854	0
1206.000000	106.780975	0
1220.000000	106.884903	0
1241.000000	107.039055	0
1250.000000	107.104462	0
1265.000000	107.212555	0
1280.000000	107.319511	0
1315.000000	107.564583	0
1320.000000	107.599075	0
1340.000000	107.735825	0
1360.000000	107.870575	0
1380.000000	108.003403	0
1400.000000	108.134346	0
1430.000000	108.327293	0
1450.000000	108.453705	0
1475.000000	108.609299	0
1500.000000	108.762268	0
1525.000000	108.912720	0
1550.000000	109.060730	0
1575.000000	109.206360	0
1600.000000	109.349701	0
1625.000000	109.490829	0
1650.000000	109.629799	0
1675.000000	109.766678	0
1700.000000	109.901527	0
1725.000000	110.034409	0
1750.000000	110.165382	0
1775.000000	110.294487	0
1800.000000	110.421799	0
1825.000000	110.547340	0
1850.000000	110.671188	0
1875.000000	110.793358	0
1900.000000	110.913910	0
1925.000000	111.032883	0
1950.000000	111.150314	0
1975.000000	111.266251	0
2000.000000	111.380699	0
2030.000000	111.516167	0
2060.000000	111.649612	0
2090.000000	111.781090	0
2120.000000	111.910652	0
2140.000000	111.995979	0
2180.000000	112.164139	0
2200.000000	112.247002	0
2240.000000	112.410286	0
2270.000000	112.530617	0
2300.000000	112.649094	0
2330.000000	112.765701	0
2360.000000	112.880371	0
2400.000000	113.030136	0
2430.000000	113.139977	0
2470.000000	113.282806	0
2500.000000	113.386993	0
2540.000000	113.521530	0
2580.000000	113.650436	0
2620.000000	113.772842	0
2650.000000	113.859795	0
2690.000000	113.968346	0
2720.000000	114.043533	0
2760.000000	114.134399	0
2800.000000	114.213242	0
2850.000000	114.292778	0
2900.000000	114.348915	0
2950.000000	114.379890	0
3000.000000	114.384949	0
3040.000000	114.370644	0
3070.000000	114.349762	0
3110.000000	114.309364	0
3150.000000	114.256035	0
3200.000000	114.173706	0
3250.000000	114.077003	0
3300.000000	113.969002	0
3350.000000	113.852325	0
3400.000000	113.729248	0
3450.000000	113.601639	0
3500.000000	113.470978	0
3550.000000	113.338425	0
3600.000000	113.204880	0
3650.000000	113.071007	0
3700.000000	112.937340	0
3750.000000	112.804260	0
3820.000000	112.619415	0
3870.000000	112.488701	0
3950.000000	112.282120	0
4000.000000	112.154739	0
4060.000000	112.003700	0
4120.000000	111.854652	0
4180.000000	111.707619	0
4250.000000	111.538589	0
4310.000000	111.395828	0
4370.000000	111.255013	0
4440.000000	111.093086	0
4500.000000	110.956299	0
4550.000000	110.843674	0
4620.000000	110.688057	0
4680.000000	110.556526	0
4750.000000	110.405174	0
4820.000000	110.256027	0
4870.000000	110.150833	0
4940.000000	110.005333	0
5000.000000	109.882248	0
5080.000000	109.720413	0
5150.000000	109.580887	0
5220.000000	109.443245	0
5300.000000	109.288162	0
5380.000000	109.135422	0
5450.000000	109.003601	0
5520.000000	108.873474	0
5600.000000	108.726761	0
5700.000000	108.546257	0
5800.000000	108.368858	0
5900.000000	108.194458	0
6000.000000	108.022919	0
6080.000000	107.887657	0
6150.000000	107.770676	0
6220.000000	107.654922	0
6300.000000	107.524078	0
6400.000000	107.362526	0
6500.000000	107.202995	0
6600.000000	107.045227	0
6700.000000	106.888893	0
6800.000000	106.733582	0
6900.000000	106.578796	0
7000.000000	106.423920	0
7100.000000	106.268219	0
7200.000000	106.110794	0
7300.000000	105.950615	0
7400.000000	105.786530	0
7500.000000	105.617210	0
7620.000000	105.405212	0
7750.000000	105.162109	0
7880.000000	104.902405	0
8000.000000	104.646179	0
8120.000000	104.373306	0
8250.000000	104.059021	0
8380.000000	103.726486	0
8500.000000	103.405006	0
8620.000000	103.071503	0
8750.000000	102.698944	0
8850.000000	102.405914	0
9000.000000	101.958405	0
9120.000000	101.595406	0
9250.000000	101.199005	0
9380.000000	100.800865	0
9500.000000	100.432999	0
9620.000000	100.065689	0
9750.000000	99.669334	0
9880.000000	99.275452	0
10000.000000	98.914742	0
10150.000000	98.468704	0
10300.000000	98.029251	0
10440.000000	97.626343	0
10600.000000	97.176498	0
10750.000000	96.767731	0
10900.000000	96.375130	0
11060.000000	95.979660	0
11200.000000	95.659492	0
11380.000000	95.294930	0
11500.000000	95.089798	0
11720.000000	94.816315	0
11800.000000	94.756607	0
12060.000000	94.739113	0
12200.000000	94.852905	0
12410.000000	95.189751	0
12500.000000	95.391785	0
12650.000000	95.795967	0
12800.000000	96.270851	0
13150.000000	97.553505	0
13200.000000	97.747391	0
13400.000000	98.528511	0
13600.000000	99.298248	0
13800.000000	100.036240	0
14000.000000	100.728325	0
14300.000000	101.660980	0
14500.000000	102.205032	0
14750.000000	102.794456	0
15000.000000	103.284966	0
15250.000000	103.683304	0
15500.000000	103.999878	0
15750.000000	104.247086	0
16000.000000	104.437378	0
16250.000000	104.582176	0
16500.000000	104.691307	0
16750.000000	104.772896	0
17000.000000	104.833504	0
17250.000000	104.878265	0
17500.000000	104.911179	0
17750.000000	104.935265	0
18000.000000	104.952835	0
18250.000000	104.965607	0
18500.000000	104.974838	0
18750.000000	104.981468	0
19000.000000	104.986183	0
19250.000000	104.989456	0
19500.000000	104.991638	0
19750.000000	104.992966	0
20000.000000	104.993576	0