
* Freq(Hz)	SPL(dB)	Phase(degrees)
20.000	94.449	0
20.291	94.444	0
20.586	94.421	0
20.885	94.391	0
21.189	94.356	0
21.497	94.319	0
21.810	94.281	0
22.127	94.243	0
22.449	94.204	0
22.776	94.164	0
23.107	94.124	0
23.443	94.083	0
23.784	94.042	0
24.130	94.000	0
24.481	93.958	0
24.837	93.915	0
25.198	93.871	0
25.565	93.827	0
25.937	93.783	0
26.314	93.738	0
26.697	93.692	0
27.085	93.646	0
27.479	93.599	0
27.879	93.551	0
28.284	93.503	0
28.696	93.455	0
29.113	93.406	0
29.537	93.357	0
29.966	93.308	0
30.402	93.258	0
30.844	93.208	0
31.293	93.158	0
31.748	93.108	0
32.210	93.057	0
32.678	93.006	0
33.154	92.953	0
33.636	92.901	0
34.125	92.847	0
34.621	92.793	0
35.125	92.738	0
35.636	92.682	0
36.154	92.625	0
36.680	92.568	0
37.214	92.509	0
37.755	92.450	0
38.304	92.389	0
38.861	92.327	0
39.427	92.264	0
40.000	92.199	0
40.582	92.132	0
41.172	92.063	0
41.771	91.993	0
42.379	91.921	0
42.995	91.848	0
43.620	91.774	0
44.255	91.698	0
44.898	91.620	0
45.552	91.542	0
46.214	91.462	0
46.886	91.381	0
47.568	91.298	0
48.260	91.214	0
48.962	91.129	0
49.674	91.041	0
50.397	90.953	0
51.130	90.863	0
51.874	90.771	0
52.628	90.678	0
53.394	90.584	0
54.170	90.489	0
54.958	90.394	0
55.758	90.298	0
56.569	90.201	0
57.391	90.105	0
58.226	90.009	0
59.073	89.912	0
59.932	89.817	0
60.804	89.722	0
61.688	89.627	0
62.586	89.533	0
63.496	89.438	0
64.420	89.342	0
65.357	89.246	0
66.307	89.148	0
67.272	89.050	0
68.250	88.951	0
69.243	88.851	0
70.250	88.751	0
71.272	88.649	0
72.309	88.547	0
73.360	88.444	0
74.427	88.339	0
75.510	88.234	0
76.608	88.128	0
77.723	88.021	0
78.853	87.911	0
80.000	87.800	0
81.164	87.687	0
82.344	87.572	0
83.542	87.455	0
84.757	87.337	0
85.990	87.218	0
87.241	87.100	0
88.510	86.981	0
89.797	86.862	0
91.103	86.744	0
92.428	86.627	0
93.773	86.511	0
95.137	86.396	0
96.520	86.283	0
97.924	86.172	0
99.349	86.063	0
100.794	85.957	0
102.260	85.853	0
103.747	85.750	0
105.256	85.647	0
106.787	85.545	0
108.340	85.441	0
109.916	85.338	0
111.515	85.233	0
113.137	85.128	0
114.783	85.023	0
116.452	84.917	0
118.146	84.810	0
119.865	84.703	0
121.608	84.596	0
123.377	84.488	0
125.171	84.380	0
126.992	84.271	0
128.839	84.162	0
130.713	84.053	0
132.615	83.944	0
134.543	83.834	0
136.500	83.724	0
138.486	83.614	0
140.500	83.505	0
142.544	83.394	0
144.617	83.284	0
146.721	83.174	0
148.855	83.062	0
151.020	82.950	0
153.217	82.837	0
155.445	82.724	0
157.706	82.610	0
160.000	82.497	0
162.327	82.385	0
164.688	82.274	0
167.084	82.164	0
169.514	82.056	0
171.980	81.950	0
174.481	81.845	0
177.019	81.743	0
179.594	81.644	0
182.206	81.547	0
184.856	81.453	0
187.545	81.364	0
190.273	81.278	0
193.041	81.197	0
195.849	81.121	0
198.697	81.051	0
201.587	80.987	0
204.520	80.929	0
207.494	80.875	0
210.512	80.823	0
213.574	80.773	0
216.681	80.725	0
219.833	80.678	0
223.030	80.633	0
226.274	80.588	0
229.565	80.545	0
232.905	80.503	0
236.292	80.462	0
239.729	80.423	0
243.216	80.385	0
246.754	80.348	0
250.343	80.313	0
253.984	80.280	0
257.678	80.247	0
261.426	80.217	0
265.229	80.187	0
269.087	80.160	0
273.001	80.134	0
276.972	80.109	0
281.000	80.087	0
285.088	80.065	0
289.234	80.046	0
293.441	80.028	0
297.710	80.012	0
302.040	79.997	0
306.433	79.984	0
310.890	79.973	0
315.412	79.964	0
320.000	79.956	0
324.655	79.949	0
329.377	79.945	0
334.168	79.941	0
339.028	79.939	0
343.959	79.939	0
348.962	79.940	0
354.038	79.942	0
359.188	79.946	0
364.412	79.951	0
369.713	79.956	0
375.090	79.963	0
380.546	79.970	0
386.081	79.977	0
391.697	79.984	0
397.395	79.990	0
403.175	79.995	0
409.039	79.997	0
414.989	79.999	0
421.025	80.000	0
427.149	80.000	0
433.362	80.000	0
439.665	80.000	0
446.060	80.000	0
452.548	80.000	0
459.131	80.000	0
465.809	80.000	0
472.584	80.000	0
479.458	80.000	0
486.432	80.000	0
493.507	80.000	0
500.686	80.000	0
507.968	80.000	0
515.357	80.000	0
522.853	80.000	0
530.458	80.000	0
538.174	80.000	0
546.002	80.000	0
553.943	80.000	0
562.001	80.000	0
570.175	80.000	0
578.469	80.000	0
586.883	80.000	0
595.419	80.000	0
604.080	80.000	0
612.866	80.000	0
621.780	80.000	0
630.824	80.000	0
640.000	80.000	0
649.309	80.000	0
658.753	80.000	0
668.335	80.000	0
678.056	80.000	0
687.919	80.000	0
697.925	80.000	0
708.076	80.000	0
718.376	80.000	0
728.825	80.000	0
739.426	80.000	0
750.181	80.000	0
761.093	79.999	0
772.163	79.997	0
783.394	79.994	0
794.789	79.988	0
806.349	79.979	0
818.078	79.966	0
829.977	79.951	0
842.050	79.935	0
854.297	79.920	0
866.724	79.907	0
879.330	79.896	0
892.120	79.888	0
905.097	79.884	0
918.262	79.884	0
931.618	79.890	0
945.169	79.903	0
958.917	79.924	0
972.864	79.955	0
987.015	79.999	0
1001.371	80.057	0
1015.937	80.129	0
1030.714	80.213	0
1045.706	80.305	0
1060.916	80.403	0
1076.347	80.505	0
1092.003	80.610	0
1107.887	80.719	0
1124.001	80.830	0
1140.350	80.945	0
1156.937	81.062	0
1173.765	81.181	0
1190.838	81.304	0
1208.159	81.429	0
1225.732	81.556	0
1243.561	81.686	0
1261.649	81.818	0
1280.000	81.952	0
1298.618	82.088	0
1317.507	82.226	0
1336.670	82.365	0
1356.113	82.506	0
1375.838	82.648	0
1395.850	82.791	0
1416.153	82.934	0
1436.751	83.077	0
1457.649	83.219	0
1478.851	83.358	0
1500.362	83.494	0
1522.185	83.625	0
1544.326	83.751	0
1566.789	83.875	0
1589.578	83.996	0
1612.699	84.114	0
1636.156	84.230	0
1659.955	84.344	0
1684.099	84.455	0
1708.595	84.564	0
1733.447	84.669	0
1758.661	84.772	0
1784.241	84.871	0
1810.193	84.965	0
1836.523	85.056	0
1863.236	85.142	0
1890.338	85.223	0
1917.833	85.298	0
1945.729	85.367	0
1974.030	85.429	0
2002.743	85.484	0
2031.873	85.532	0
2061.428	85.575	0
2091.412	85.614	0
2121.832	85.650	0
2152.695	85.684	0
2184.007	85.716	0
2215.774	85.746	0
2248.003	85.775	0
2280.701	85.802	0
2313.874	85.828	0
2347.530	85.852	0
2381.676	85.874	0
2416.318	85.894	0
2451.464	85.913	0
2487.122	85.930	0
2523.298	85.945	0
2560.000	85.959	0
2597.236	85.971	0
2635.014	85.981	0
2673.341	85.989	0
2712.226	85.996	0
2751.676	86.001	0
2791.700	86.004	0
2832.306	86.006	0
2873.503	86.006	0
2915.299	86.006	0
2957.703	86.005	0
3000.724	86.003	0
3044.370	86.002	0
3088.652	86.000	0
3133.577	85.998	0
3179.156	85.996	0
3225.398	85.992	0
3272.312	85.987	0
3319.909	85.981	0
3368.198	85.973	0
3417.190	85.964	0
3466.894	85.955	0
3517.321	85.943	0
3568.482	85.931	0
3620.387	85.918	0
3673.046	85.903	0
3726.472	85.888	0
3780.675	85.872	0
3835.666	85.855	0
3891.457	85.837	0
3948.060	85.820	0
4005.486	85.803	0
4063.747	85.786	0
4122.855	85.770	0
4182.824	85.755	0
4243.664	85.739	0
4305.390	85.722	0
4368.013	85.705	0
4431.547	85.687	0
4496.005	85.668	0
4561.401	85.648	0
4627.749	85.628	0
4695.061	85.606	0
4763.352	85.583	0
4832.637	85.558	0
4902.929	85.532	0
4974.244	85.505	0
5046.596	85.475	0
5120.000	85.443	0
5194.472	85.409	0
5270.027	85.374	0
5346.682	85.337	0
5424.451	85.299	0
5503.352	85.259	0
5583.399	85.218	0
5664.612	85.177	0
5747.006	85.135	0
5830.598	85.094	0
5915.406	85.055	0
6001.447	85.019	0
6088.740	84.987	0
6177.303	84.958	0
6267.154	84.932	0
6358.312	84.905	0
6450.796	84.878	0
6544.625	84.849	0
6639.818	84.818	0
6736.397	84.784	0
6834.380	84.748	0
6933.789	84.707	0
7034.643	84.663	0
7136.964	84.613	0
7240.773	84.559	0
7346.093	84.498	0
7452.944	84.430	0
7561.350	84.354	0
7671.332	84.266	0
7782.915	84.163	0
7896.120	84.040	0
8010.971	83.889	0
8127.493	83.709	0
8245.711	83.501	0
8365.647	83.272	0
8487.328	83.025	0
8610.779	82.768	0
8736.026	82.502	0
8863.095	82.231	0
8992.011	81.957	0
9122.803	81.682	0
9255.497	81.408	0
9390.121	81.138	0
9526.704	80.877	0
9665.273	80.628	0
9805.857	80.400	0
9948.487	80.198	0
10093.191	80.027	0
10240.000	79.886	0
10388.944	79.766	0
10540.055	79.662	0
10693.363	79.565	0
10848.902	79.474	0
11006.703	79.387	0
11166.799	79.302	0
11329.224	79.219	0
11494.012	79.140	0
11661.195	79.062	0
11830.812	78.987	0
12002.895	78.914	0
12177.480	78.843	0
12354.606	78.775	0
12534.309	78.709	0
12716.624	78.644	0
12901.592	78.582	0
13089.250	78.521	0
13279.637	78.462	0
13472.794	78.404	0
13668.760	78.348	0
13867.577	78.293	0
14069.285	78.239	0
14273.928	78.185	0
14481.547	78.133	0
14692.186	78.081	0
14905.889	78.032	0
15122.700	77.986	0
15342.664	77.943	0
15565.829	77.903	0
15792.239	77.865	0
16021.942	77.830	0
16254.986	77.797	0
16491.422	77.767	0
16731.295	77.738	0
16974.656	77.711	0
17221.559	77.686	0
17472.053	77.663	0
17726.189	77.641	0
17984.021	77.620	0
18245.605	77.601	0
18510.994	77.584	0
18780.242	77.567	0
19053.408	77.552	0
19330.547	77.538	0
19611.715	77.527	0
19896.975	77.520	0